# Usage: 
#    wirecell-sigproc convert-noise-spectra --format microboonev1 pdvd-top-noise-spectra-v0.txt pdvd-top-noise-spectra-v0.json.bz2
2.0 MHz 3000 Ticks 7.2 mV/fC 2.2 microsecond
Freq  5.2 91.8 172.05 5.2 91.8 172.05 162.051 182.051
Plane 0 0 0  1 1 1  2 2
-1 25.7386 27.2593 28.7287 25.7386 27.2593 28.7287 28.7287 28.7287
0 101.07 106.224 117.589 101.07 106.224 117.589 111.057 111.057
0.0125 99.6113 108.025 121.671 99.6113 108.025 121.671 114.911 114.911
0.025 99.3995 112.428 123.606 99.3995 112.428 123.606 116.739 116.739
0.0375 101.257 113.939 126.257 101.257 113.939 126.257 119.243 119.243
0.05 101.424 110.98 120.22 101.424 110.98 120.22 113.541 113.541
0.0625 98.7064 110.803 121.913 98.7064 110.803 121.913 115.14 115.14
0.075 98.7294 110.564 117.806 98.7294 110.564 117.806 111.261 111.261
0.0875 96.0165 106.176 119.191 96.0165 106.176 119.191 112.569 112.569
0.1 95.2755 107.719 116.619 95.2755 107.719 116.619 110.14 110.14
0.1125 93.7526 103.776 112.513 93.7526 103.776 112.513 106.263 106.263
0.125 96.0591 107.849 112.411 96.0591 107.849 112.411 106.166 106.166
0.1375 88.0485 102.872 108.754 88.0485 102.872 108.754 102.713 102.713
0.15 88.5689 99.5492 108.564 88.5689 99.5492 108.564 102.533 102.533
0.1625 84.2788 93.5821 104.129 84.2788 93.5821 104.129 98.3438 98.3438
0.175 83.7439 96.7273 104.82 83.7439 96.7273 104.82 98.9967 98.9967
0.1875 82.8691 93.694 97.9678 82.8691 93.694 97.9678 92.5252 92.5252
0.2 82.442 88.5285 99.1146 82.442 88.5285 99.1146 93.6082 93.6082
0.2125 76.9214 90.2706 95.6816 76.9214 90.2706 95.6816 90.3659 90.3659
0.225 79.765 89.6894 95.0951 79.765 89.6894 95.0951 89.8121 89.8121
0.2375 75.0011 85.4835 95.0706 75.0011 85.4835 95.0706 89.7889 89.7889
0.25 74.2536 84.5684 89.4501 74.2536 84.5684 89.4501 84.4806 84.4806
0.2625 74.3189 81.7724 85.9255 74.3189 81.7724 85.9255 81.1518 81.1518
0.275 71.6342 78.8372 86.4452 71.6342 78.8372 86.4452 81.6427 81.6427
0.2875 70.3661 76.4184 82.9166 70.3661 76.4184 82.9166 78.3102 78.3102
0.3 71.4171 77.6854 80.9617 71.4171 77.6854 80.9617 76.4639 76.4639
0.3125 67.8048 72.8987 78.9668 67.8048 72.8987 78.9668 74.5797 74.5797
0.325 66.1003 71.9551 77.7546 66.1003 71.9551 77.7546 73.4349 73.4349
0.3375 64.753 70.6769 76.658 64.753 70.6769 76.658 72.3992 72.3992
0.35 62.4527 68.3831 74.3134 62.4527 68.3831 74.3134 70.1849 70.1849
0.3625 62.0032 67.2199 72.3268 62.0032 67.2199 72.3268 68.3087 68.3087
0.375 61.2649 64.6448 70.7474 61.2649 64.6448 70.7474 66.817 66.817
0.3875 57.1113 62.3518 67.5095 57.1113 62.3518 67.5095 63.759 63.759
0.4 62.3801 63.188 64.3037 62.3801 63.188 64.3037 60.7312 60.7312
0.4125 55.7433 60.7208 65.6126 55.7433 60.7208 65.6126 61.9675 61.9675
0.425 56.7976 60.1601 62.9472 56.7976 60.1601 62.9472 59.4501 59.4501
0.4375 51.2993 57.7601 61.6542 51.2993 57.7601 61.6542 58.229 58.229
0.45 50.4628 55.8569 58.6692 50.4628 55.8569 58.6692 55.4098 55.4098
0.4625 49.8533 55.0769 58.7545 49.8533 55.0769 58.7545 55.4903 55.4903
0.475 49.1362 52.6523 57.573 49.1362 52.6523 57.573 54.3745 54.3745
0.4875 48.7481 52.1944 55.3148 48.7481 52.1944 55.3148 52.2418 52.2418
0.5 47.1654 48.8412 53.8469 47.1654 48.8412 53.8469 50.8554 50.8554
0.5125 44.0835 48.306 52.1442 44.0835 48.306 52.1442 49.2473 49.2473
0.525 43.3087 47.338 50.8435 43.3087 47.338 50.8435 48.0189 48.0189
0.5375 46.6996 47.7846 49.6644 46.6996 47.7846 49.6644 46.9053 46.9053
0.55 42.7944 46.1266 46.7033 42.7944 46.1266 46.7033 44.1087 44.1087
0.5625 44.0044 43.6673 47.3776 44.0044 43.6673 47.3776 44.7455 44.7455
0.575 43.5334 43.8413 47.4765 43.5334 43.8413 47.4765 44.8389 44.8389
0.5875 40.2485 42.1512 44.096 40.2485 42.1512 44.096 41.6462 41.6462
0.6 39.4002 41.916 43.7869 39.4002 41.916 43.7869 41.3543 41.3543
0.6125 39.0427 38.9629 41.4602 39.0427 38.9629 41.4602 39.1568 39.1568
0.625 37.2657 38.3777 41.0147 37.2657 38.3777 41.0147 38.7361 38.7361
0.6375 34.6497 36.4464 38.3864 34.6497 36.4464 38.3864 36.2538 36.2538
0.65 32.1925 35.3791 38.3608 32.1925 35.3791 38.3608 36.2296 36.2296
0.6625 32.572 34.4042 37.5503 32.572 34.4042 37.5503 35.4642 35.4642
0.675 37.2804 34.8448 37.9617 37.2804 34.8448 37.9617 35.8527 35.8527
0.6875 32.1917 33.4169 35.4957 32.1917 33.4169 35.4957 33.5237 33.5237
0.7 33.2486 36.5815 35.2432 33.2486 36.5815 35.2432 33.2853 33.2853
0.7125 31.5848 32.6833 32.5648 31.5848 32.6833 32.5648 30.7556 30.7556
0.725 31.2126 31.4843 31.8928 31.2126 31.4843 31.8928 30.121 30.121
0.7375 29.4865 29.1504 32.3915 29.4865 29.1504 32.3915 30.592 30.592
0.75 28.7504 29.5927 31.2778 28.7504 29.5927 31.2778 29.5402 29.5402
0.7625 31.6415 28.3446 29.5647 31.6415 28.3446 29.5647 27.9222 27.9222
0.775 30.2646 29.2535 27.1976 30.2646 29.2535 27.1976 25.6866 25.6866
0.7875 34.3511 29.5385 28.8538 34.3511 29.5385 28.8538 27.2508 27.2508
0.8 35.2768 29.1386 29.0891 35.2768 29.1386 29.0891 27.473 27.473
0.8125 28.3708 26.992 25.5311 28.3708 26.992 25.5311 24.1127 24.1127
0.825 23.2601 22.6213 23.2992 23.2601 22.6213 23.2992 22.0048 22.0048
0.8375 21.298 22.9697 21.7229 21.298 22.9697 21.7229 20.516 20.516
0.85 21.058 21.8378 22.8878 21.058 21.8378 22.8878 21.6162 21.6162
0.8625 18.6345 20.7599 21.8524 18.6345 20.7599 21.8524 20.6383 20.6383
0.875 16.7904 19.5764 22.3508 16.7904 19.5764 22.3508 21.1091 21.1091
0.8875 17.7267 20.6174 20.6 17.7267 20.6174 20.6 19.4555 19.4555
0.9 17.7361 19.6643 18.9795 17.7361 19.6643 18.9795 17.9251 17.9251
0.9125 16.7785 16.4829 19.2156 16.7785 16.4829 19.2156 18.1481 18.1481
0.925 15.0688 16.7656 19.5608 15.0688 16.7656 19.5608 18.4741 18.4741
0.9375 15.6996 16.2824 16.4076 15.6996 16.2824 16.4076 15.496 15.496
0.95 16.0988 16.5086 17.722 16.0988 16.5086 17.722 16.7374 16.7374
0.9625 15.1681 15.4962 16.254 15.1681 15.4962 16.254 15.351 15.351
0.975 13.5722 15.2959 14.8378 13.5722 15.2959 14.8378 14.0135 14.0135
0.9875 12.3921 14.6241 14.6681 12.3921 14.6241 14.6681 13.8532 13.8532
1 13.4228 12.3433 13.5058 13.4228 12.3433 13.5058 12.7554 12.7554
1.0125 11.9817 13.5059 12.534 11.9817 13.5059 12.534 11.8377 11.8377
1.025 11.9596 13.692 12.1617 11.9596 13.692 12.1617 11.486 11.486
1.0375 14.1893 12.7678 12.9138 14.1893 12.7678 12.9138 12.1964 12.1964
1.05 13.9789 12.5788 11.4234 13.9789 12.5788 11.4234 10.7887 10.7887
1.0625 15.892 10.5047 12.4095 15.892 10.5047 12.4095 11.7201 11.7201
1.075 15.3401 11.3262 10.9939 15.3401 11.3262 10.9939 10.3831 10.3831
1.0875 12.1789 14.3247 11.3317 12.1789 14.3247 11.3317 10.7022 10.7022
1.1 5.32199 8.31139 9.86029 5.32199 8.31139 9.86029 9.3125 9.3125
1.1125 8.19596 8.83951 4.48777 8.19596 8.83951 4.48777 4.23845 4.23845
1.125 6.65655 8.0679 7.45612 6.65655 8.0679 7.45612 7.04189 7.04189
1.1375 8.4354 9.68994 4.7538 8.4354 9.68994 4.7538 4.4897 4.4897
1.15 5.35361 7.13104 0 5.35361 7.13104 0 0 0
1.1625 5.07505 5.52749 7.02657 5.07505 5.52749 7.02657 6.63621 6.63621
1.175 4.39987 6.20295 5.52772 4.39987 6.20295 5.52772 5.22062 5.22062
1.1875 6.39012 4.53023 3.71353 6.39012 4.53023 3.71353 3.50723 3.50723
1.2 6.90266 0.882674 7.55991 6.90266 0.882674 7.55991 7.13992 7.13992
1.2125 1.35893 6.2334 6.02676 1.35893 6.2334 6.02676 5.69194 5.69194
1.225 1.41578 0 4.75188 1.41578 0 4.75188 4.48788 4.48788
1.2375 3.04422 6.03085 4.31714 3.04422 6.03085 4.31714 4.0773 4.0773
1.25 0 0 0 0 0 0 0 0
